Dataset	ScanNumber	Collision Mode	ParentIonMZ	BasePeakIntensity	BasePeakMZ	ReporterIonIntensityMax	Ion_126.128	Ion_127.125	Ion_127.131	Ion_128.128	Ion_128.134	Ion_129.131	Ion_129.138	Ion_130.135	Ion_130.141	Ion_131.138	Weighted Avg Pct Intensity Correction
0	21001		600.37	6222745	230.1699	1900061.13	1779861.13	1678333.88	1395909.5	1646482.5	1735021.25	1900061.13	1725886.5	1729740.88	1729857.5	1871203	3.3
0	21002		595.99	528381.19	129.1378	522534.03	471670.41	451116.69	445034.94	431591.13	500162.41	479860.97	522534.03	488355.94	511246.75	516620.5	3.1
0	21003		685.66	1405710.25	262.1507	622749.75	571065.88	582258.63	469455.5	550177.06	616550.88	577920.88	596711.38	577972.13	593390.94	622749.75	3.3
0	21004		875.94	486356.09	230.17	314901.56	296206.16	287400.88	271908.06	291303.09	313494.41	279488.53	296330.13	299289.22	303806.13	314901.56	3.2
0	21005		738.88	719312.5	127.1309	753139.88	200621.75	257679.48	753139.88	421267.19	210099.27	309694.78	200480.36	189561.73	172532.09	181188.83	4.4
0	21007		711.01	4694603.5	756.408	526865.63	452735.59	423119.22	421633.59	387987.97	361958.88	406815.63	526865.63	441948.09	400199.09	442500.09	3.2
0	21008		568.0	2907040.5	230.1699	2067495.13	1759454.5	1784622.25	1413936.13	1806120.63	1812025.13	1864937	1886261.5	1939979.88	1955776.63	2067495.13	3.2
0	21009		702.82	754864.19	616.8162	468999.75	448916.59	424494.63	369071.63	417137.78	460222.09	463531.88	468999.75	444025.75	434623.06	454363.28	3.1
0	21010		878.97	411246.25	878.9732	254315.13	226672.2	246479.38	209504.47	230102.63	243596.22	239957.78	253006.56	254315.13	240544.33	239716.23	3.1
0	21013		1066.51	1272383	175.1187	723460.88	655461.44	701229.44	634280.5	684545.63	705108	721303.19	721440.75	705182.38	702711.06	723460.88	3.1
0	21014		511.93	29045660	110.0715	2500266	2222100	2264733.25	1938755.63	2196843.5	2407495.25	2162430.75	2273781.5	2380382.75	2271405	2500266	3.2
0	21015		427.29	1108703.75	129.1376	1119174.88	1119174.88	1018975.19	861816	955225.31	1054672.13	1041369.19	1095609.38	1089433.5	1090218.75	1099345	3.3
0	21016		621.32	628973.5	110.0716	269639.94	244674	247885.69	204051.69	223590.72	244247.05	269639.94	244592.39	244342.69	254848.84	266478.47	3.4
0	21017		754.85	619822	264.134	149448.08	119930.92	141154.95	134463.13	131073.14	134277.63	142413.89	124347.78	149448.08	127424.44	127360.02	3.0
0	21018		691.66	721253.25	262.1508	346842.75	326643.78	325936.19	297241.84	302123.72	323928.53	315482.25	343284.38	319617.63	334688.94	346842.75	3.3
0	21019		558.83	542218	130.1411	566857.75	302735.66	285564.09	304811.19	280564.81	308058.69	297253.09	297043.41	298532.53	566857.75	302545.91	3.7
0	21021		516.78	2408831	404.2339	847439.56	782348.44	756546.88	685190.56	685559.75	778185.44	818176.63	818115.31	791871.56	774023	847439.56	3.2
0	21022		471.76	567117.81	358.2285	372164.97	344746.97	344423.81	319154.63	345470.13	358670.84	372164.97	363087.44	368369.34	371016.97	365525.25	3.1
0	21023		533.32	796746.13	130.141	818507.63	759970.63	716112.56	693586.06	709170.75	730324.06	747172.31	750234.06	740238	818507.63	783565.25	3.3
0	21024		438.72	672441.5	376.2754	316747.5	190112.5	216628.06	316747.5	224664.61	217085.8	243479.91	232797.73	216012.17	217726.38	234518.36	3.2
0	21025		629.36	697444.63	131.1381	719768.63	600521.75	630574.13	545338.06	587450.44	633807.94	670616.94	682553.13	664115.81	652930.19	719768.63	3.1
0	21028		744.93	922811.69	230.17	652059.75	620148.31	611066.63	621890.63	594244.25	621049.19	646094.63	638831.94	612775	604735.81	652059.75	3.1
0	21029		444.28	793029.19	230.17	597842.56	510264.94	495309.28	417393.38	518080	558236.81	543030.13	558551.13	586690.5	533767.88	597842.56	3.0
0	21030		599.38	3805471.25	175.1188	1562884.25	1494034.75	1453814.38	1247811.13	1420103.5	1522257.13	1536577.38	1562884.25	1503183.63	1505908.13	1446798.75	3.1
0	21031		713.4	893582.81	230.17	415789.56	378414.69	382329.41	381377.59	391784.44	389789	392988.13	395305.22	403705.97	415789.56	379972.59	3.1
0	21032		879.48	311869.94	878.9735	221270.27	197193.86	202346.05	183512.56	196461.28	209366.63	203910.56	206060.98	219916	201219.58	221270.27	3.1
0	21034		611.83	616352.06	127.1312	635537.94	274552.66	348634.88	635537.94	386865.56	304493.25	367268.09	308743.47	328385.09	313120.63	339583.44	3.7
0	21035		667.86	647860.63	196.0715	562558.5	226718.39	259738.52	562558.5	297640.84	227200.88	295117.22	244253.88	221009.36	213979.91	251883.86	3.9
0	21036		739.36	565463.38	127.1311	580403.88	285730.34	298364.38	580403.88	419966.56	282457.28	316185.69	265763.38	256899.58	242172.47	258066.31	3.6
0	21038		414.51	27660780	414.5141	10917521	8145944.5	9149136	7893493.5	8302329.5	9367891	9390015	8772070	9446041	9837394	10917521	3.3
0	21039		524.06	3777100.25	500.8311	1420240.63	1371295.5	1271384.75	1015366	1114848	1385956.75	1388539.75	1291354.88	1256725.75	1420240.63	1375878.25	3.5
0	21040		467.26	542872.19	230.17	290417.38	285658.03	271127.97	266590.63	278899.59	290417.38	273027.13	288566.16	279190.94	279890.94	283752.78	3.1
0	21041		791.36	281113.63	110.0715	191744.72	169975.8	184454.78	160058.69	172032.95	191495.66	191744.72	184141.06	187472.16	189531.2	187401.42	3.1
0	21042		577.97	351944.97	127.1311	348596.34	310519.09	313941.31	348596.34	333392.25	335416.03	339825.41	320624.03	333138.94	327047.03	334683.66	3.0
0	21043		731.92	218759.44	131.1381	226748.92	184353.44	179756.58	190665.38	201510.64	180833.83	202223.95	188506.44	184684.58	196786.41	226748.92	3.2
0	21045		552.35	7703452.5	552.3502	4075066.5	3259532	3588377	3002863	3392419.25	3701298.25	3752226	3763636	3858245.25	3928146.5	4075066.5	3.1
0	21046		642.13	1961543.5	136.0756	418295.53	311474.94	327075.22	244621.56	313345.03	366680.69	350536.38	332455.09	362590.91	356632.38	418295.53	3.3
0	21048		434.93	1756819.88	175.1189	956121.81	846056.75	773405.69	811932.94	754835.94	837890.88	829881.13	907901.13	860951.19	916334.25	956121.81	3.2
0	21049		700.38	866582.56	230.1699	710584.44	674912.75	646230.38	629696.69	623330.81	691410.31	654809.19	710584.44	691319.75	663247.31	658900.25	3.1
0	21050		594.96	788697.56	129.1378	787820.81	685426.63	723279.69	598879.75	662671.94	680273.06	734359.31	784269.94	701822.75	741226.44	787820.81	3.2
0	21052		675.67	23471060	262.1506	5417616.5	4799167	4753273	3717404.75	4333743	4969619.5	4991136	4653339.5	4917560	5417616.5	5051361.5	3.4
0	21053		406.83	4150811.25	213.6365	428750.81	361501.38	385566.97	307614.78	363073.84	428750.81	411523.94	393359.97	419188.97	416445.75	428376.06	3.2
0	21055		432.25	1640805.38	358.2285	939573.5	857783.13	834593.44	871645.75	917475.56	934956.25	890561.81	938170.5	897180.63	899146.13	939573.5	3.0
0	21056		667.36	686153.94	196.0716	562439.88	293870.03	306182.22	562439.88	351374.78	294696.34	331946.31	294674.94	258913.11	265751.66	284763.75	3.6
0	21057		516.92	2326828.5	110.0716	1076121.75	871192.06	911031.13	778238.94	859208.25	935628.44	912584.25	970742.06	899355.88	925025.25	1076121.75	3.3
0	21058		496.96	1914537	376.2754	567030.5	480911.47	477070.22	422867.91	469744.63	485243.34	484363.72	518096.16	532685	519538.66	567030.5	3.2
0	21059		724.43	477082.97	724.4293	299054.09	265096.16	270999.5	299054.09	256229.8	262111.72	261912.39	278691.19	249993.23	253043.77	265670.41	3.1
0	21060		823.41	261117.59	586.2291	109337.74	107424	94019.47	74144.87	100918.45	105967.48	95097.87	104116.85	104191.59	109337.74	108759.77	3.3
0	21061		913.04	296855.19	913.041	209151.92	199877.2	185990.89	147643.47	194538.78	202714.44	175352.98	191086.58	180092.05	209151.92	190154.63	3.4
0	21062		914.04	330632.69	230.17	277245.63	234043.36	256808.84	213547.36	236266.45	249795.8	257160.14	261347.08	277245.63	265638.06	254209.14	3.1
0	21064		459.3	20565784	175.1189	12287139	10576325	10450184	9859600	10547626	10653273	12063882	11254609	12287139	11262272	11859098	3.0
0	21065		1070.98	1122289.13	138.0549	24631.52	15525.01	17130.97	18755.95	12559.46	24174.27	24631.52	22481.7	13235.33	16353.02	22455.67	3.8
0	21066		494.82	2023350	230.1699	1672320.5	1672320.5	1575365.25	1595514.38	1517267.88	1500996.5	1552447.63	1631008.88	1534053.38	1430397.38	1427206.63	3.1
0	21067		517.8	1208817.25	110.0716	811513.81	665657.94	659025.94	615700.31	602466	665647.25	693048.94	715346.88	632497.75	675116.81	811513.81	3.3
0	21069		530.67	10241120	131.1381	10577174	8329392	8928550	6091924.5	7972332.5	9166626	9693854	8925454	9554289	9728952	10577174	3.3
0	21070		538.81	5689878.5	538.8059	3171881.5	2716201.25	2840529.5	2517424.5	2676080.25	2800201.25	3171881.5	2648481.75	2833667	3025292	2841740.25	3.3
0	21071		457.97	16112210	475.3439	11726927	11089844	11093888	8526714	10202499	11008426	11041433	10576301	11210666	10132676	11726927	3.3
0	21072		588.37	8190816	588.3732	7098791	6892725.5	6655515	5910508	6880117	6609340.5	6680652.5	7091834.5	7098791	6624607	6998121.5	3.1
0	21073		828.52	780989.38	828.0213	166544.2	155893.88	136241.17	139909.98	141408.56	151763.78	162120.66	135086.84	140463.53	166544.2	157948.98	3.4
0	21074		1033.97	2661157	138.0549	44842.01	39172.5	37784.96	29472.15	34923.77	39403.14	37765.9	39584.05	38258.09	44842.01	41878.18	3.5
0	21075		562.65	270414.91	230.1701	220526.31	178744.58	179179.58	202582.64	206322.41	186008.19	191904.23	200661.25	192709.8	220526.31	197907	3.0
0	21076		667.9	672754.63	196.0716	628306.13	338355.13	378417.38	628306.13	382716.03	352686.97	399510.81	364218.56	346637.88	340873.75	370904.16	3.5
0	21077		616.4	550498.06	230.1701	524208.59	524208.59	494247.34	399105.19	440025.53	489431.94	520284.47	482928.47	487714	505189.28	505225.44	3.4
0	21078		728.68	223936.39	230.1701	189612.94	168064.09	163953.97	189612.94	165737.59	162023.75	175361.41	171252.22	182056.48	186569.88	187724.53	3.1
0	21080		770.63	328207.06	230.17	331720.34	322685.94	282698.84	280116.22	275026.59	299549.34	325416.66	287041.09	294099.53	320066.41	331720.34	3.4
0	21082		686.46	2234070.25	686.4578	1166224.88	1166224.88	1084384	824618.94	998587.13	1084237.25	1104943.38	1110946.13	1118775.25	1078941.63	1130281.5	3.3
0	21083		651.9	504826.22	651.8958	393581.31	272758.53	303632.16	393581.31	271691.5	288715.28	316645.41	286476.41	280894.81	292833.03	288329.81	3.3
0	21084		533.97	7075793	110.0715	3274300.5	3170313	2984062.5	2453007.25	2866640.5	3002122.75	3033396.25	3081202	3003044.25	2958295	3274300.5	3.3
0	21085		796.15	678437	795.5038	246364.7	236473.92	207423.36	155266.52	212029.19	246364.7	209394.25	223495.98	184630.42	229894.05	198811	3.4
0	21086		710.36	402244.03	874.4196	223859.44	181110.95	186065.09	185019.09	188349.27	204205.34	199896	206982.47	197887.61	223859.44	199451.73	3.1
0	21087		448.25	399957	230.1701	322510.59	309701.25	298329.44	320405.69	282092.94	322293.44	320792.16	322510.59	315334.84	319944.16	319969.59	3.1
0	21088		703.05	535092.5	616.8165	339815.84	319437.84	314082.13	247821.77	289423.16	329867.16	315928.19	314642.66	311000.78	339347.97	339815.84	3.4
0	21089		634.35	598716.75	230.17	396229.44	343275.84	356564.78	337284.09	352816.5	374182.69	368046.22	381189	368540.25	350505.75	396229.44	3.1
0	21091		476.82	8707044	476.8148	8188765	7222995.5	7516920.5	5982365	6877740.5	7525454.5	7700461.5	7650777	7542636.5	7418886.5	8188765	3.3
0	21092		747.37	273792.16	693.3069	179169.53	144090.63	158756.73	151964	141303.33	149909.48	170212.64	179169.53	160344.34	155651.84	167553.81	3.0
0	21094		483.96	13472399	230.17	10795552	9682710	9550459	9769681	10280169	10141201	9936622	10795552	10348003	9603998	10029142	2.9
0	21095		550.29	2529473	359.7239	1334819.88	1333407.13	1180383	788387.06	1049467.38	1289087.25	1187339.75	1205613.25	1202474.38	1334819.88	1239758.38	3.6
0	21096		497.29	1278676.38	230.1701	982128	868217.31	856706.13	758054.25	793039.13	896415.25	910920.06	938246.38	896322.06	906564.94	982128	3.2
0	21097		681.35	1090714.88	128.1344	1081467.88	1047401.75	1004455.06	881430.75	952428.88	1074149.88	1026886.31	1070392.63	1016634.38	1035202	1081467.88	3.2
0	21098		479.59	464285.84	110.0716	391632.84	310429.88	308460.97	391632.84	344997.31	306672.38	356292.75	340692.38	341657.91	332371.63	343366.31	2.9
0	21099		656.71	957834.81	131.1381	1001896.5	530560.13	590092.13	949311.38	655314.19	584511.88	651531.06	628230.5	591421.13	573243.25	1001896.5	3.7
0	21100		898.43	446892.41	906.4178	73808.51	60841.43	61249.58	59094.34	59151.76	73559.34	65186.12	63244.78	66498.76	65014.24	73808.51	3.2
0	21101		1377.95	1881105.13	138.0549	22748.67	17863.7	20157	13829.82	19755.24	19567.18	17764.28	19448.81	20117.54	18480.59	22748.67	3.3
0	21102		664.6	242765.61	230.1701	201357.56	179051.77	176986.2	170570.14	186358.06	171565.52	176097.44	190491.45	177144.84	169663.78	201357.56	3.2
0	21104		490.03	2403654.75	230.1701	718204.81	688790.06	714598.56	581200.13	669399.31	670275.5	684721.63	707166.19	714992.5	718204.81	709133.44	3.3
0	21105		735.78	77517.22	230.1701	54084.72	43667.46	50893.87	54084.72	51952.69	52711.98	47777.16	45904.32	45369.86	45985.98	47573.05	3.1
0	21106		568.13	574816.81	433.7559	484274.03	413940	452423.19	282442.63	398181.22	474581.19	427124.63	441437.22	448903.19	468005.84	484274.03	3.4
0	21107		794.42	244379.47	795.5035	74937.79	62669.01	65207.29	74937.79	68948.85	71685.87	72093.55	65645.37	70026.13	73231.7	73923.59	3.1
0	21108		897.93	531120.56	906.4182	64407.6	60413.94	61349.8	59624.71	59154.22	64407.6	62976.38	63024.27	55949.16	62430.97	58800.14	3.2
0	21109		770.38	193057.31	230.1702	190772.84	160335.91	159700.91	153809.89	175539.45	170381.13	167712.23	172790.94	163072.03	170440.45	190772.84	3.2
0	21110		659.68	532161.06	136.0757	315357.13	155770.5	176147.25	315357.13	209741.86	163849.63	204641.33	159231.3	158640.8	139419.56	158951.05	3.5
0	21112		513.81	1626991	230.17	1090243.88	910966.44	899171.31	991258	914001.44	894399.56	998228.13	983125.44	1045515.69	971190.56	1090243.88	3.0
0	21113		624.33	568123.13	624.334	509356.25	448588.09	446828.47	509356.25	443681.72	470524.88	478910.28	456140.81	447443.06	465393.25	506435.13	3.2
0	21115		461.3	1166683.13	230.17	891179.63	788650.69	705493.63	722191	790074.56	811032.06	829238.88	784506.75	752679.25	770053.25	891179.63	3.2
0	21116		572.65	461090.91	136.0757	420790.97	245091.11	237828.59	420790.97	309251.78	241093.09	296356.28	256831.11	230966.31	256168.45	281331.34	3.4
0	21117		602.31	2946488	602.8388	795044.75	683699	715566.44	668382.5	627321.13	744090.94	763508.56	726770.94	727837.56	795044.75	726229.88	3.2
0	21118		427.28	1006837.94	131.1381	1038737	915733.88	948925.06	683311.13	844729.25	951151.88	934988.25	974227.94	966572.69	988195.19	1038737	3.3
0	21119		687.61	4154284.25	686.9591	854368.06	831220.63	733119.81	534966.81	697969.19	802784	761910.44	776656.31	772837.31	854368.06	806527	3.5
0	21120		970.79	738845.38	126.055	127439.25	107812.98	109116.32	91735.2	100800.11	121586.18	97944.73	127439.25	117698.24	116826.78	119870.06	3.1
0	21122		590.86	2239791.25	131.1382	2309899	2242993.25	1951907.75	1671037.88	2105715.5	2139218.25	2136695	2116460.25	2170655.5	2190445.5	2309899	3.3
0	21123		690.07	559122.19	230.1701	497789.81	450814.06	461309.84	394786.69	417479.19	431699.31	493721.69	482855.72	494319.53	484153.66	497789.81	3.2
0	21125		419.24	386637.53	175.1189	196625.7	184489.98	185930.95	149426.81	167108.59	186364.66	169556.69	183324.94	191184.36	182357.08	196625.7	3.3
0	21126		403.63	18917344	213.6365	1951390.13	1457338	1568912.75	1178486	1619262.88	1788072	1820296.75	1790323.63	1822867.38	1951390.13	1689249.75	3.0
0	21127		637.32	2991730.25	110.0715	656976.31	606947.75	530376.13	410172.31	553529.38	656976.31	576023.69	537829.25	414917.34	596624.19	498864.88	3.6
0	21128		541.69	308027.63	359.724	197929.22	163070.69	162699.31	154326.22	129122.83	159315.83	159410.95	197929.22	183160.34	177910.92	169539.86	3.0
0	21129		728.1	583858.25	126.0551	210900.78	188133.25	179517.34	187214.13	176687.16	188304.17	210900.78	205742.05	189418.36	195976.7	200884.84	3.1
0	21130		858.48	541941.25	230.1701	382730.19	334146.34	353936.41	272695	320013.91	337880	323758.94	382730.19	359809.5	332410.56	359319.34	3.1
0	21131		664.85	220768.08	230.1701	172366.97	139439.95	151721.14	139883.53	149655.17	162765.97	140034.5	164612.7	163820.14	153206.31	172366.97	3.0
0	21132		454.27	535554.44	457.2971	246215.05	213481.16	220823.44	193122.41	246215.05	214334.03	240785.09	206913.55	235406.59	210987.91	244516.11	3.2
0	21134		672.05	841951.44	672.3799	543274.44	440865.38	466986.38	409268.09	421710.72	501202.28	492119.19	489766.94	444223.03	543274.44	540420.31	3.4
0	21135		985.15	306112.66	1252.5859	240712.94	221622	204164.8	168494.16	199687.22	240712.94	229828.84	223643.86	199058.92	218508.86	186532.39	3.2
0	21136		681.72	3697498.5	129.1377	3658756	3637711.75	3312095.5	2380160.75	2997015.5	3491108.25	3261578.75	3658756	3584053.25	3523244.75	3272182	3.2
0	21137		654.39	796019.13	129.1377	790635.88	759143.5	700354.44	658445.19	665382.19	711976.81	720168.69	790635.88	716762.81	732911.38	778880.38	3.2
0	21138		448.77	501803.75	230.1699	463898.69	429180.25	437134.63	374995.38	411287.41	451720.22	451996.16	440266.16	448262.69	463898.69	453186.28	3.2
0	21139		490.3	1766312.75	230.17	865200.25	812032	823301.56	695158.69	767642.38	831409.44	834100.94	798308.75	847067.13	823006.19	865200.25	3.3
0	21140		641.67	902227.5	110.0715	311825	302041.72	287139.69	209678.88	280233.75	293045.5	277686.84	285205.13	285452.38	311825	304088.56	3.5
0	21142		504.54	6015859	175.1188	4632229	3623673	3894559.75	3108300	3849355	4002000.5	3895136.25	3922624	4008684.25	4239689.5	4632229	3.3
0	21143		410.23	1616266.75	213.6366	243061.48	226736.83	204471.36	172562.14	200593.69	221649.5	243061.48	214126.13	216349.56	233628.28	229356	3.4
0	21145		500.77	1674275.75	110.0714	755297.38	376947.16	402308.44	755297.38	468615.38	407321.72	452910.28	393225	377001.94	372074.41	416963.94	3.6
0	21146		442.6	453587.16	521.2919	342149.84	304367.81	292558.63	271420.03	286078.94	288747.25	294435.78	335541.38	322559.59	342149.84	312228.88	3.1
0	21147		762.93	741573.75	230.1699	546956.88	522113.5	493782.94	442414.94	499271.5	524391.19	502736.25	535653.25	546956.88	517590.91	546417.06	3.1
0	21148		802.41	111154.63	435.2371	86622.59	72100.2	71178.47	79992.34	73319.17	75676.81	86622.59	85630.15	81413.54	73888.22	77487.41	2.8
0	21149		487.95	499113.59	128.1282	496303.31	315058	318822.56	288187.22	496303.31	355278.59	451984.69	365405.94	378321.22	362390.19	484913.94	2.9
0	21150		746.7	773157.44	745.936	354747.56	260776.58	287445.41	273116.38	270705.47	313415.38	299377.44	319363.25	297304.97	327554.03	354747.56	3.2
0	21151		445.6	290897.78	230.17	206555.64	188702.95	182204.45	168536.63	173809.77	186545.17	177286.27	206555.64	204073.69	202911.25	198806.47	3.1
0	21152		580.38	396605.31	230.17	330730.22	269206.81	265860.94	304672.78	306696.5	292323.66	308692.41	290526.06	287074.84	287257.75	330730.22	3.0
0	21153		830.9	739001.13	131.1382	785731.69	149498.91	156241.3	263076.88	188085.28	135122.64	183752.55	206725.94	151628.61	120101.89	785731.69	5.3
0	21154		604.67	616365.5	230.17	467098.63	424296.09	450516.38	457764.31	428290.94	433851.78	420364.44	467098.63	406495.25	433957.22	420396.34	3.1
0	21156		483.29	40832832	230.1699	31783438	27893998	29487582	25805014	26194024	29391660	27002852	29451584	31642516	29048832	31783438	3.2
0	21157		416.26	8627698	358.2285	4804916.5	4591450.5	4075370.75	3555714	4207546.5	4476142	4416970	4186258.75	4521308	4433201	4804916.5	3.3
0	21159		424.25	518698.81	358.2286	447967.19	373509.53	401350.06	374363.59	362550.91	404757.63	402645.53	403768.22	412725.59	413509.16	447967.19	3.2
0	21160		524.83	1083332.63	230.1701	844907.13	717804.63	687121.38	593881.44	646336.13	699055.44	757186.75	754345.75	740336.44	844907.13	767185.44	3.3
0	21161		498.3	2957989	230.17	2369934.25	2052629.38	2129450	1660068.63	1909883.63	2197180.25	2141893.25	2134791.5	2151204	2078842.5	2369934.25	3.3
0	21162		508.62	827131	836.3985	616041.06	551795.19	552437.13	480260.97	560526.63	580929.38	588976.88	608692.75	581087.31	603322.56	616041.06	3.1
